## w(eV)         sigma(Sm^-1)     kappa(W(mK)^-1)        L12/e(Am^-1)      L22/e^2(Wm^-1)
    0.01              361070             570.925        -7.27589e+06         2.00701e+08
    0.03              361067             570.918        -7.27584e+06           2.007e+08
    0.05              361060             570.904        -7.27575e+06         2.00697e+08
    0.07              361050             570.883        -7.27561e+06         2.00694e+08
    0.09              361037             570.855        -7.27542e+06         2.00689e+08
    0.11              361021              570.82        -7.27518e+06         2.00682e+08
    0.13              361002             570.778         -7.2749e+06         2.00675e+08
    0.15              360979             570.729        -7.27458e+06         2.00666e+08
    0.17              360953             570.673         -7.2742e+06         2.00657e+08
    0.19              360924             570.609        -7.27378e+06         2.00646e+08
    0.21              360891             570.539        -7.27331e+06         2.00633e+08
    0.23              360855             570.462         -7.2728e+06          2.0062e+08
    0.25              360816             570.378        -7.27224e+06         2.00605e+08
    0.27              360774             570.286        -7.27163e+06         2.00589e+08
    0.29              360729             570.188        -7.27097e+06         2.00572e+08
    0.31              360680             570.083        -7.27027e+06         2.00553e+08
    0.33              360628             569.971        -7.26952e+06         2.00533e+08
    0.35              360573             569.851        -7.26873e+06         2.00512e+08
    0.37              360514             569.725        -7.26788e+06          2.0049e+08
    0.39              360453             569.592        -7.26699e+06         2.00467e+08
    0.41              360388             569.452        -7.26606e+06         2.00442e+08
    0.43              360320             569.305        -7.26508e+06         2.00416e+08
    0.45              360248             569.151        -7.26404e+06         2.00389e+08
    0.47              360174              568.99        -7.26297e+06         2.00361e+08
    0.49              360096             568.822        -7.26184e+06         2.00331e+08
    0.51              360015             568.647        -7.26067e+06           2.003e+08
    0.53              359930             568.465        -7.25945e+06         2.00268e+08
    0.55              359843             568.276        -7.25819e+06         2.00235e+08
    0.57              359752             568.081        -7.25688e+06         2.00201e+08
    0.59              359658             567.878        -7.25552e+06         2.00165e+08
    0.61              359561             567.669        -7.25411e+06         2.00128e+08
    0.63              359460             567.452        -7.25265e+06         2.00089e+08
    0.65              359357             567.229        -7.25115e+06          2.0005e+08
    0.67              359250             566.999         -7.2496e+06         2.00009e+08
    0.69              359140             566.762        -7.24801e+06         1.99967e+08
    0.71              359026             566.518        -7.24637e+06         1.99924e+08
    0.73              358910             566.268        -7.24468e+06         1.99879e+08
    0.75              358790              566.01        -7.24294e+06         1.99834e+08
    0.77              358667             565.746        -7.24115e+06         1.99787e+08
    0.79              358541             565.475        -7.23932e+06         1.99739e+08
    0.81              358411             565.197        -7.23744e+06         1.99689e+08
    0.83              358279             564.912        -7.23552e+06         1.99638e+08
    0.85              358143             564.621        -7.23354e+06         1.99586e+08
    0.87              358004             564.323        -7.23152e+06         1.99533e+08
    0.89              357862             564.018        -7.22945e+06         1.99479e+08
    0.91              357716             563.706        -7.22733e+06         1.99423e+08
    0.93              357568             563.388        -7.22517e+06         1.99366e+08
    0.95              357416             563.063        -7.22295e+06         1.99308e+08
    0.97              357261             562.731        -7.22069e+06         1.99248e+08
    0.99              357103             562.393        -7.21839e+06         1.99188e+08
    1.01              356941             562.048        -7.21603e+06         1.99126e+08
    1.03              356777             561.696        -7.21363e+06         1.99062e+08
    1.05              356609             561.338        -7.21118e+06         1.98998e+08
    1.07              356438             560.973        -7.20868e+06         1.98932e+08
    1.09              356264             560.601        -7.20613e+06         1.98865e+08
    1.11              356087             560.223        -7.20354e+06         1.98797e+08
    1.13              355907             559.838        -7.20089e+06         1.98727e+08
    1.15              355723             559.447         -7.1982e+06         1.98656e+08
    1.17              355537              559.05        -7.19546e+06         1.98584e+08
    1.19              355347             558.645        -7.19268e+06         1.98511e+08
    1.21              355154             558.235        -7.18984e+06         1.98436e+08
    1.23              354958             557.817        -7.18696e+06          1.9836e+08
    1.25              354758             557.394        -7.18402e+06         1.98283e+08
    1.27              354556             556.964        -7.18104e+06         1.98205e+08
    1.29              354350             556.527        -7.17802e+06         1.98125e+08
    1.31              354142             556.084        -7.17494e+06         1.98044e+08
    1.33              353930             555.635        -7.17181e+06         1.97962e+08
    1.35              353715             555.179        -7.16864e+06         1.97878e+08
    1.37              353497             554.717        -7.16542e+06         1.97794e+08
    1.39              353276             554.249        -7.16215e+06         1.97708e+08
    1.41              353051             553.774        -7.15883e+06          1.9762e+08
    1.43              352824             553.293        -7.15546e+06         1.97532e+08
    1.45              352593             552.806        -7.15204e+06         1.97442e+08
    1.47              352360             552.312        -7.14858e+06          1.9735e+08
    1.49              352123             551.813        -7.14507e+06         1.97258e+08
    1.51              351883             551.307         -7.1415e+06         1.97164e+08
    1.53              351640             550.795        -7.13789e+06         1.97069e+08
    1.55              351394             550.277        -7.13423e+06         1.96973e+08
    1.57              351145             549.753        -7.13052e+06         1.96875e+08
    1.59              350893             549.222        -7.12676e+06         1.96776e+08
    1.61              350638             548.686        -7.12295e+06         1.96676e+08
    1.63              350379             548.143         -7.1191e+06         1.96575e+08
    1.65              350118             547.594        -7.11519e+06         1.96472e+08
    1.67              349854              547.04        -7.11124e+06         1.96368e+08
    1.69              349586             546.479        -7.10723e+06         1.96262e+08
    1.71              349316             545.913        -7.10318e+06         1.96156e+08
    1.73              349042              545.34        -7.09908e+06         1.96048e+08
    1.75              348765             544.762        -7.09492e+06         1.95938e+08
    1.77              348486             544.177        -7.09072e+06         1.95828e+08
    1.79              348203             543.587        -7.08647e+06         1.95716e+08
    1.81              347917             542.991        -7.08217e+06         1.95603e+08
    1.83              347629             542.389        -7.07782e+06         1.95488e+08
    1.85              347337             541.782        -7.07342e+06         1.95373e+08
    1.87              347042             541.168        -7.06897e+06         1.95255e+08
    1.89              346744             540.549        -7.06447e+06         1.95137e+08
    1.91              346444             539.924        -7.05992e+06         1.95017e+08
    1.93              346140             539.294        -7.05532e+06         1.94896e+08
    1.95              345833             538.658        -7.05067e+06         1.94774e+08
    1.97              345523             538.016        -7.04598e+06          1.9465e+08
    1.99              345211             537.368        -7.04123e+06         1.94525e+08
    2.01              344895             536.715        -7.03643e+06         1.94399e+08
    2.03              344576             536.057        -7.03158e+06         1.94272e+08
    2.05              344255             535.393        -7.02668e+06         1.94143e+08
    2.07              343930             534.723        -7.02173e+06         1.94013e+08
    2.09              343603             534.048        -7.01673e+06         1.93881e+08
    2.11              343272             533.368        -7.01168e+06         1.93748e+08
    2.13              342939             532.682        -7.00659e+06         1.93614e+08
    2.15              342602             531.991        -7.00144e+06         1.93479e+08
    2.17              342263             531.294        -6.99624e+06         1.93342e+08
    2.19              341921             530.593        -6.99099e+06         1.93204e+08
    2.21              341576             529.885        -6.98569e+06         1.93064e+08
    2.23              341228             529.173        -6.98033e+06         1.92923e+08
    2.25              340877             528.455        -6.97493e+06         1.92781e+08
    2.27              340523             527.733        -6.96948e+06         1.92638e+08
    2.29              340166             527.005        -6.96398e+06         1.92493e+08
    2.31              339807             526.272        -6.95843e+06         1.92347e+08
    2.33              339444             525.533        -6.95282e+06         1.92199e+08
    2.35              339079              524.79        -6.94717e+06         1.92051e+08
    2.37              338711             524.042        -6.94146e+06         1.91901e+08
    2.39              338340             523.289        -6.93571e+06         1.91749e+08
    2.41              337966              522.53         -6.9299e+06         1.91596e+08
    2.43              337589             521.767        -6.92404e+06         1.91442e+08
    2.45              337209             520.999        -6.91813e+06         1.91287e+08
    2.47              336827             520.226        -6.91217e+06          1.9113e+08
    2.49              336442             519.448        -6.90616e+06         1.90972e+08
    2.51              336054             518.666         -6.9001e+06         1.90813e+08
    2.53              335663             517.878        -6.89399e+06         1.90652e+08
    2.55              335269             517.086        -6.88783e+06          1.9049e+08
    2.57              334873             516.289        -6.88161e+06         1.90326e+08
    2.59              334473             515.488        -6.87535e+06         1.90161e+08
    2.61              334071             514.681        -6.86903e+06         1.89995e+08
    2.63              333666             513.871        -6.86266e+06         1.89828e+08
    2.65              333259             513.055        -6.85625e+06         1.89659e+08
    2.67              332849             512.235        -6.84978e+06         1.89489e+08
    2.69              332435             511.411        -6.84326e+06         1.89317e+08
    2.71              332020             510.582        -6.83668e+06         1.89144e+08
    2.73              331601             509.749        -6.83006e+06          1.8897e+08
    2.75              331180             508.911        -6.82339e+06         1.88795e+08
    2.77              330756             508.069        -6.81666e+06         1.88618e+08
    2.79              330329             507.223        -6.80988e+06         1.88439e+08
    2.81              329900             506.372        -6.80306e+06          1.8826e+08
    2.83              329467             505.517        -6.79618e+06         1.88079e+08
    2.85              329033             504.658        -6.78925e+06         1.87897e+08
    2.87              328595             503.794        -6.78226e+06         1.87713e+08
    2.89              328155             502.927        -6.77523e+06         1.87528e+08
    2.91              327712             502.055        -6.76815e+06         1.87342e+08
    2.93              327266              501.18        -6.76101e+06         1.87154e+08
    2.95              326818               500.3        -6.75382e+06         1.86965e+08
    2.97              326367             499.416        -6.74658e+06         1.86775e+08
    2.99              325914             498.528        -6.73929e+06         1.86583e+08
    3.01              325458             497.637        -6.73195e+06          1.8639e+08
    3.03              324999             496.741        -6.72456e+06         1.86195e+08
    3.05              324538             495.841        -6.71711e+06            1.86e+08
    3.07              324074             494.938        -6.70962e+06         1.85802e+08
    3.09              323608             494.031        -6.70207e+06         1.85604e+08
    3.11              323139              493.12        -6.69447e+06         1.85404e+08
    3.13              322667             492.206        -6.68682e+06         1.85203e+08
    3.15              322193             491.288        -6.67912e+06         1.85001e+08
    3.17              321716             490.366        -6.67137e+06         1.84797e+08
    3.19              321237              489.44        -6.66357e+06         1.84591e+08
    3.21              320755             488.511        -6.65571e+06         1.84385e+08
    3.23              320270             487.579        -6.64781e+06         1.84177e+08
    3.25              319784             486.643        -6.63985e+06         1.83968e+08
    3.27              319294             485.703        -6.63184e+06         1.83757e+08
    3.29              318802              484.76        -6.62378e+06         1.83545e+08
    3.31              318308             483.814        -6.61567e+06         1.83332e+08
    3.33              317811             482.864         -6.6075e+06         1.83117e+08
    3.35              317312             481.911        -6.59929e+06         1.82901e+08
    3.37              316810             480.955        -6.59102e+06         1.82684e+08
    3.39              316306             479.996        -6.58271e+06         1.82465e+08
    3.41              315799             479.033        -6.57434e+06         1.82246e+08
    3.43              315290             478.067        -6.56592e+06         1.82024e+08
    3.45              314778             477.099        -6.55745e+06         1.81802e+08
    3.47              314264             476.127        -6.54893e+06         1.81578e+08
    3.49              313748             475.152        -6.54036e+06         1.81352e+08
    3.51              313229             474.174        -6.53174e+06         1.81126e+08
    3.53              312708             473.193        -6.52306e+06         1.80897e+08
    3.55              312184             472.209        -6.51434e+06         1.80668e+08
    3.57              311658             471.222        -6.50557e+06         1.80437e+08
    3.59              311130             470.233        -6.49674e+06         1.80205e+08
    3.61              310599              469.24        -6.48786e+06         1.79972e+08
    3.63              310066             468.245        -6.47894e+06         1.79737e+08
    3.65              309531             467.247        -6.46996e+06         1.79501e+08
    3.67              308993             466.247        -6.46093e+06         1.79264e+08
    3.69              308453             465.243        -6.45185e+06         1.79026e+08
    3.71              307911             464.238        -6.44272e+06         1.78786e+08
    3.73              307367             463.229        -6.43354e+06         1.78544e+08
    3.75              306820             462.218        -6.42431e+06         1.78302e+08
    3.77              306271             461.205        -6.41503e+06         1.78058e+08
    3.79              305720             460.189         -6.4057e+06         1.77812e+08
    3.81              305166             459.171        -6.39632e+06         1.77566e+08
    3.83              304610              458.15        -6.38688e+06         1.77318e+08
    3.85              304052             457.127         -6.3774e+06         1.77069e+08
    3.87              303492             456.102        -6.36787e+06         1.76818e+08
    3.89              302930             455.074        -6.35829e+06         1.76567e+08
    3.91              302365             454.044        -6.34866e+06         1.76313e+08
    3.93              301798             453.012        -6.33898e+06         1.76059e+08
    3.95              301229             451.978        -6.32925e+06         1.75803e+08
    3.97              300658             450.942        -6.31947e+06         1.75546e+08
    3.99              300085             449.903        -6.30964e+06         1.75288e+08
    4.01              299509             448.863        -6.29976e+06         1.75028e+08
    4.03              298932             447.821        -6.28983e+06         1.74768e+08
    4.05              298352             446.776        -6.27985e+06         1.74505e+08
    4.07              297770              445.73        -6.26983e+06         1.74242e+08
    4.09              297187             444.682        -6.25975e+06         1.73977e+08
    4.11              296601             443.632        -6.24962e+06         1.73711e+08
    4.13              296013              442.58        -6.23945e+06         1.73444e+08
    4.15              295423             441.527        -6.22923e+06         1.73175e+08
    4.17              294831             440.471        -6.21896e+06         1.72905e+08
    4.19              294236             439.414        -6.20864e+06         1.72634e+08
    4.21              293640             438.356        -6.19827e+06         1.72362e+08
    4.23              293042             437.295        -6.18785e+06         1.72088e+08
    4.25              292442             436.234        -6.17739e+06         1.71813e+08
    4.27              291840              435.17        -6.16688e+06         1.71537e+08
    4.29              291236             434.105        -6.15632e+06          1.7126e+08
    4.31              290630             433.039        -6.14571e+06         1.70981e+08
    4.33              290022             431.971        -6.13505e+06         1.70701e+08
    4.35              289412             430.902        -6.12435e+06          1.7042e+08
    4.37              288800             429.832         -6.1136e+06         1.70138e+08
    4.39              288186              428.76         -6.1028e+06         1.69854e+08
    4.41              287570             427.687        -6.09195e+06         1.69569e+08
    4.43              286953             426.612        -6.08106e+06         1.69283e+08
    4.45              286333             425.537        -6.07012e+06         1.68996e+08
    4.47              285712              424.46        -6.05914e+06         1.68707e+08
    4.49              285089             423.382         -6.0481e+06         1.68417e+08
    4.51              284464             422.303        -6.03702e+06         1.68126e+08
    4.53              283837             421.223         -6.0259e+06         1.67834e+08
    4.55              283209             420.142        -6.01473e+06         1.67541e+08
    4.57              282578              419.06        -6.00351e+06         1.67246e+08
    4.59              281946             417.977        -5.99224e+06          1.6695e+08
    4.61              281312             416.893        -5.98094e+06         1.66653e+08
    4.63              280676             415.808        -5.96958e+06         1.66355e+08
    4.65              280039             414.722        -5.95818e+06         1.66056e+08
    4.67              279399             413.636        -5.94673e+06         1.65755e+08
    4.69              278758             412.549        -5.93524e+06         1.65453e+08
    4.71              278116             411.461        -5.92371e+06          1.6515e+08
    4.73              277471             410.372        -5.91213e+06         1.64846e+08
    4.75              276825             409.283         -5.9005e+06         1.64541e+08
    4.77              276178             408.193        -5.88883e+06         1.64235e+08
    4.79              275528             407.102        -5.87712e+06         1.63927e+08
    4.81              274877             406.011        -5.86536e+06         1.63618e+08
    4.83              274225             404.919        -5.85356e+06         1.63308e+08
    4.85              273570             403.827        -5.84172e+06         1.62997e+08
    4.87              272914             402.734        -5.82983e+06         1.62685e+08
    4.89              272257             401.641         -5.8179e+06         1.62372e+08
    4.91              271598             400.548        -5.80593e+06         1.62058e+08
    4.93              270937             399.454        -5.79391e+06         1.61742e+08
    4.95              270275             398.359        -5.78185e+06         1.61426e+08
    4.97              269611             397.265        -5.76975e+06         1.61108e+08
    4.99              268946              396.17         -5.7576e+06         1.60789e+08
    5.01              268280             395.075        -5.74542e+06         1.60469e+08
    5.03              267611              393.98        -5.73319e+06         1.60148e+08
    5.05              266942             392.885        -5.72092e+06         1.59826e+08
    5.07              266271             391.789        -5.70861e+06         1.59503e+08
    5.09              265598             390.693        -5.69626e+06         1.59179e+08
    5.11              264924             389.598        -5.68386e+06         1.58853e+08
    5.13              264248             388.502        -5.67143e+06         1.58527e+08
    5.15              263572             387.406        -5.65896e+06         1.58199e+08
    5.17              262893             386.311        -5.64644e+06         1.57871e+08
    5.19              262214             385.215        -5.63389e+06         1.57541e+08
    5.21              261533             384.119        -5.62129e+06         1.57211e+08
    5.23              260850             383.024        -5.60866e+06         1.56879e+08
    5.25              260167             381.929        -5.59599e+06         1.56547e+08
    5.27              259482             380.834        -5.58328e+06         1.56213e+08
    5.29              258795             379.739        -5.57053e+06         1.55878e+08
    5.31              258108             378.644        -5.55774e+06         1.55543e+08
    5.33              257419              377.55        -5.54491e+06         1.55206e+08
    5.35              256729             376.456        -5.53205e+06         1.54868e+08
    5.37              256037             375.362        -5.51914e+06          1.5453e+08
    5.39              255345             374.268         -5.5062e+06          1.5419e+08
    5.41              254651             373.175        -5.49323e+06         1.53849e+08
    5.43              253956             372.083        -5.48021e+06         1.53508e+08
    5.45              253260             370.991        -5.46716e+06         1.53165e+08
    5.47              252562             369.899        -5.45407e+06         1.52822e+08
    5.49              251864             368.808        -5.44095e+06         1.52478e+08
    5.51              251164             367.717        -5.42779e+06         1.52132e+08
    5.53              250463             366.627         -5.4146e+06         1.51786e+08
    5.55              249761             365.537        -5.40137e+06         1.51439e+08
    5.57              249058             364.449         -5.3881e+06         1.51091e+08
    5.59              248354              363.36         -5.3748e+06         1.50742e+08
    5.61              247649             362.273        -5.36147e+06         1.50392e+08
    5.63              246943             361.186         -5.3481e+06         1.50041e+08
    5.65              246236               360.1         -5.3347e+06         1.49689e+08
    5.67              245527             359.014        -5.32126e+06         1.49337e+08
    5.69              244818              357.93        -5.30779e+06         1.48983e+08
    5.71              244108             356.846        -5.29429e+06         1.48629e+08
    5.73              243397             355.763        -5.28075e+06         1.48274e+08
    5.75              242684             354.681        -5.26719e+06         1.47918e+08
    5.77              241971             353.599        -5.25359e+06         1.47561e+08
    5.79              241257             352.519        -5.23996e+06         1.47204e+08
    5.81              240542             351.439         -5.2263e+06         1.46845e+08
    5.83              239827             350.361         -5.2126e+06         1.46486e+08
    5.85              239110             349.283        -5.19888e+06         1.46126e+08
    5.87              238392             348.207        -5.18512e+06         1.45765e+08
    5.89              237674             347.131        -5.17134e+06         1.45403e+08
    5.91              236955             346.057        -5.15753e+06         1.45041e+08
    5.93              236235             344.983        -5.14368e+06         1.44678e+08
    5.95              235514             343.911        -5.12981e+06         1.44314e+08
    5.97              234792              342.84        -5.11591e+06         1.43949e+08
    5.99              234070              341.77        -5.10198e+06         1.43584e+08
    6.01              233347             340.701        -5.08802e+06         1.43218e+08
    6.03              232623             339.633        -5.07404e+06         1.42851e+08
    6.05              231898             338.567        -5.06002e+06         1.42483e+08
    6.07              231173             337.502        -5.04598e+06         1.42115e+08
    6.09              230447             336.438        -5.03192e+06         1.41746e+08
    6.11              229720             335.375        -5.01782e+06         1.41376e+08
    6.13              228993             334.313        -5.00371e+06         1.41006e+08
    6.15              228265             333.253        -4.98956e+06         1.40635e+08
    6.17              227537             332.194        -4.97539e+06         1.40263e+08
    6.19              226808             331.137         -4.9612e+06         1.39891e+08
    6.21              226078             330.081        -4.94698e+06         1.39518e+08
    6.23              225348             329.026        -4.93273e+06         1.39144e+08
    6.25              224617             327.973        -4.91847e+06          1.3877e+08
    6.27              223886             326.921        -4.90418e+06         1.38395e+08
    6.29              223154             325.871        -4.88986e+06          1.3802e+08
    6.31              222422             324.822        -4.87552e+06         1.37644e+08
    6.33              221689             323.775        -4.86117e+06         1.37267e+08
    6.35              220956             322.729        -4.84678e+06          1.3689e+08
    6.37              220222             321.685        -4.83238e+06         1.36512e+08
    6.39              219488             320.642        -4.81796e+06         1.36134e+08
    6.41              218753             319.601        -4.80351e+06         1.35755e+08
    6.43              218018             318.561        -4.78905e+06         1.35376e+08
    6.45              217283             317.523        -4.77457e+06         1.34996e+08
    6.47              216547             316.487        -4.76006e+06         1.34615e+08
    6.49              215811             315.452        -4.74554e+06         1.34235e+08
    6.51              215075             314.419        -4.73099e+06         1.33853e+08
    6.53              214338             313.387        -4.71643e+06         1.33471e+08
    6.55              213602             312.358        -4.70185e+06         1.33089e+08
    6.57              212864              311.33        -4.68726e+06         1.32706e+08
    6.59              212127             310.303        -4.67264e+06         1.32323e+08
    6.61              211389             309.279        -4.65801e+06         1.31939e+08
    6.63              210651             308.256        -4.64337e+06         1.31555e+08
    6.65              209913             307.235         -4.6287e+06         1.31171e+08
    6.67              209175             306.216        -4.61402e+06         1.30786e+08
    6.69              208437             305.198        -4.59933e+06           1.304e+08
    6.71              207698             304.183        -4.58462e+06         1.30015e+08
    6.73              206959             303.169         -4.5699e+06         1.29629e+08
    6.75              206220             302.157        -4.55516e+06         1.29242e+08
    6.77              205482             301.147        -4.54041e+06         1.28855e+08
    6.79              204743             300.139        -4.52565e+06         1.28468e+08
    6.81              204003             299.133        -4.51087e+06         1.28081e+08
    6.83              203264             298.128        -4.49608e+06         1.27693e+08
    6.85              202525             297.126        -4.48128e+06         1.27305e+08
    6.87              201786             296.125        -4.46647e+06         1.26917e+08
    6.89              201047             295.126        -4.45165e+06         1.26528e+08
    6.91              200308              294.13        -4.43681e+06         1.26139e+08
    6.93              199569             293.135        -4.42197e+06          1.2575e+08
    6.95              198830             292.142        -4.40712e+06          1.2536e+08
    6.97              198091             291.152        -4.39226e+06         1.24971e+08
    6.99              197352             290.163        -4.37738e+06         1.24581e+08
    7.01              196614             289.176         -4.3625e+06         1.24191e+08
    7.03              195875             288.191        -4.34762e+06           1.238e+08
    7.05              195137             287.209        -4.33272e+06          1.2341e+08
    7.07              194398             286.228        -4.31782e+06         1.23019e+08
    7.09              193660              285.25        -4.30291e+06         1.22628e+08
    7.11              192923             284.273          -4.288e+06         1.22237e+08
    7.13              192185             283.299        -4.27307e+06         1.21846e+08
    7.15              191448             282.326        -4.25815e+06         1.21455e+08
    7.17              190710             281.356        -4.24322e+06         1.21063e+08
    7.19              189974             280.388        -4.22828e+06         1.20672e+08
    7.21              189237             279.422        -4.21334e+06          1.2028e+08
    7.23              188501             278.458         -4.1984e+06         1.19888e+08
    7.25              187765             277.497        -4.18346e+06         1.19496e+08
    7.27              187030             276.537        -4.16851e+06         1.19105e+08
    7.29              186294              275.58        -4.15356e+06         1.18713e+08
    7.31              185560             274.624         -4.1386e+06         1.18321e+08
    7.33              184825             273.671        -4.12365e+06         1.17929e+08
    7.35              184091              272.72         -4.1087e+06         1.17537e+08
    7.37              183358             271.772        -4.09374e+06         1.17145e+08
    7.39              182625             270.825        -4.07879e+06         1.16753e+08
    7.41              181892             269.881        -4.06384e+06         1.16361e+08
    7.43              181160             268.939        -4.04888e+06         1.15969e+08
    7.45              180429             267.999        -4.03393e+06         1.15577e+08
    7.47              179698             267.061        -4.01898e+06         1.15185e+08
    7.49              178967             266.126        -4.00404e+06         1.14793e+08
    7.51              178238             265.193        -3.98909e+06         1.14401e+08
    7.53              177508             264.262        -3.97415e+06          1.1401e+08
    7.55              176780             263.333        -3.95921e+06         1.13618e+08
    7.57              176051             262.407        -3.94428e+06         1.13227e+08
    7.59              175324             261.483        -3.92935e+06         1.12835e+08
    7.61              174597             260.561        -3.91443e+06         1.12444e+08
    7.63              173871             259.641        -3.89952e+06         1.12053e+08
    7.65              173146             258.724        -3.88461e+06         1.11663e+08
    7.67              172421             257.809         -3.8697e+06         1.11272e+08
    7.69              171697             256.897         -3.8548e+06         1.10881e+08
    7.71              170974             255.986        -3.83992e+06         1.10491e+08
    7.73              170251             255.078        -3.82503e+06         1.10101e+08
    7.75              169530             254.172        -3.81016e+06         1.09711e+08
    7.77              168809             253.269         -3.7953e+06         1.09322e+08
    7.79              168089             252.368        -3.78044e+06         1.08932e+08
    7.81              167370             251.469         -3.7656e+06         1.08543e+08
    7.83              166651             250.573        -3.75076e+06         1.08155e+08
    7.85              165934             249.679        -3.73594e+06         1.07766e+08
    7.87              165217             248.787        -3.72113e+06         1.07378e+08
    7.89              164501             247.897        -3.70633e+06          1.0699e+08
    7.91              163787              247.01        -3.69154e+06         1.06602e+08
    7.93              163073             246.126        -3.67676e+06         1.06215e+08
    7.95              162360             245.243          -3.662e+06         1.05828e+08
    7.97              161648             244.363        -3.64725e+06         1.05442e+08
    7.99              160937             243.486        -3.63251e+06         1.05056e+08
    8.01              160227              242.61        -3.61779e+06          1.0467e+08
    8.03              159518             241.738        -3.60309e+06         1.04284e+08
    8.05              158810             240.867         -3.5884e+06         1.03899e+08
    8.07              158104             239.999        -3.57372e+06         1.03515e+08
    8.09              157398             239.133        -3.55907e+06         1.03131e+08
    8.11              156693              238.27        -3.54442e+06         1.02747e+08
    8.13              155990             237.409         -3.5298e+06         1.02364e+08
    8.15              155288              236.55        -3.51519e+06         1.01981e+08
    8.17              154586             235.694        -3.50061e+06         1.01599e+08
    8.19              153886              234.84        -3.48604e+06         1.01217e+08
    8.21              153188             233.988        -3.47149e+06         1.00836e+08
    8.23              152490             233.139        -3.45695e+06         1.00455e+08
    8.25              151794             232.293        -3.44244e+06         1.00075e+08
    8.27              151098             231.448        -3.42795e+06         9.96953e+07
    8.29              150404             230.606        -3.41348e+06         9.93162e+07
    8.31              149712             229.767        -3.39904e+06         9.89376e+07
    8.33              149020              228.93        -3.38461e+06         9.85597e+07
    8.35              148330             228.095        -3.37021e+06         9.81823e+07
    8.37              147642             227.263        -3.35582e+06         9.78055e+07
    8.39              146954             226.433        -3.34147e+06         9.74293e+07
    8.41              146268             225.605        -3.32713e+06         9.70538e+07
    8.43              145583              224.78        -3.31282e+06         9.66788e+07
    8.45              144900             223.957        -3.29853e+06         9.63046e+07
    8.47              144218             223.137        -3.28427e+06          9.5931e+07
    8.49              143537             222.319        -3.27004e+06          9.5558e+07
    8.51              142858             221.503        -3.25583e+06         9.51858e+07
    8.53              142181              220.69        -3.24164e+06         9.48142e+07
    8.55              141505             219.879        -3.22749e+06         9.44434e+07
    8.57              140830             219.071        -3.21336e+06         9.40732e+07
    8.59              140157             218.265        -3.19925e+06         9.37038e+07
    8.61              139485             217.461        -3.18518e+06         9.33351e+07
    8.63              138815              216.66        -3.17113e+06         9.29672e+07
    8.65              138146             215.861        -3.15712e+06         9.26001e+07
    8.67              137479             215.065        -3.14313e+06         9.22337e+07
    8.69              136814             214.271        -3.12917e+06         9.18681e+07
    8.71              136150             213.479        -3.11524e+06         9.15033e+07
    8.73              135487              212.69        -3.10135e+06         9.11393e+07
    8.75              134827             211.903        -3.08748e+06         9.07761e+07
    8.77              134168             211.119        -3.07364e+06         9.04138e+07
    8.79              133510             210.336        -3.05984e+06         9.00523e+07
    8.81              132855             209.557        -3.04607e+06         8.96916e+07
    8.83              132201             208.779        -3.03233e+06         8.93318e+07
    8.85              131548             208.004        -3.01863e+06         8.89729e+07
    8.87              130898             207.232        -3.00495e+06         8.86148e+07
    8.89              130249             206.462        -2.99132e+06         8.82577e+07
    8.91              129602             205.694        -2.97771e+06         8.79015e+07
    8.93              128956             204.928        -2.96414e+06         8.75461e+07
    8.95              128313             204.165        -2.95061e+06         8.71918e+07
    8.97              127671             203.404        -2.93711e+06         8.68383e+07
    8.99              127031             202.646        -2.92365e+06         8.64858e+07
    9.01              126392              201.89        -2.91022e+06         8.61342e+07
    9.03              125756             201.136        -2.89683e+06         8.57836e+07
    9.05              125121             200.385        -2.88348e+06          8.5434e+07
    9.07              124489             199.636        -2.87016e+06         8.50854e+07
    9.09              123858             198.889        -2.85688e+06         8.47378e+07
    9.11              123229             198.145        -2.84364e+06         8.43912e+07
    9.13              122602             197.403        -2.83044e+06         8.40456e+07
    9.15              121976             196.663        -2.81728e+06          8.3701e+07
    9.17              121353             195.926        -2.80416e+06         8.33575e+07
    9.19              120732             195.191        -2.79108e+06          8.3015e+07
    9.21              120112             194.458        -2.77803e+06         8.26736e+07
    9.23              119495             193.728        -2.76503e+06         8.23332e+07
    9.25              118880                 193        -2.75207e+06         8.19939e+07
    9.27              118266             192.274        -2.73915e+06         8.16557e+07
    9.29              117655             191.551        -2.72627e+06         8.13186e+07
    9.31              117045              190.83        -2.71343e+06         8.09826e+07
    9.33              116438             190.111        -2.70063e+06         8.06477e+07
    9.35              115832             189.394        -2.68788e+06         8.03139e+07
    9.37              115229              188.68        -2.67517e+06         7.99813e+07
    9.39              114628             187.968         -2.6625e+06         7.96498e+07
    9.41              114028             187.259        -2.64988e+06         7.93195e+07
    9.43              113431             186.551         -2.6373e+06         7.89903e+07
    9.45              112836             185.846        -2.62477e+06         7.86623e+07
    9.47              112243             185.143        -2.61228e+06         7.83354e+07
    9.49              111653             184.443        -2.59983e+06         7.80098e+07
    9.51              111064             183.744        -2.58743e+06         7.76853e+07
    9.53              110477             183.048        -2.57507e+06          7.7362e+07
    9.55              109893             182.354        -2.56276e+06           7.704e+07
    9.57              109311             181.663         -2.5505e+06         7.67191e+07
    9.59              108731             180.973        -2.53828e+06         7.63995e+07
    9.61              108153             180.286        -2.52611e+06         7.60811e+07
    9.63              107577             179.601        -2.51399e+06          7.5764e+07
    9.65              107004             178.919        -2.50192e+06         7.54481e+07
    9.67              106433             178.238        -2.48989e+06         7.51335e+07
    9.69              105864              177.56        -2.47791e+06         7.48201e+07
    9.71              105297             176.884        -2.46597e+06          7.4508e+07
    9.73              104732              176.21        -2.45409e+06         7.41972e+07
    9.75              104170             175.538        -2.44226e+06         7.38877e+07
    9.77              103610             174.869        -2.43047e+06         7.35794e+07
    9.79              103052             174.202        -2.41873e+06         7.32725e+07
    9.81              102497             173.536        -2.40705e+06         7.29669e+07
    9.83              101944             172.874        -2.39541e+06         7.26626e+07
    9.85              101393             172.213        -2.38382e+06         7.23596e+07
    9.87              100844             171.554        -2.37229e+06         7.20579e+07
    9.89              100298             170.898         -2.3608e+06         7.17576e+07
    9.91             99754.5             170.243        -2.34937e+06         7.14586e+07
    9.93               99213             169.591        -2.33798e+06          7.1161e+07
    9.95             98673.8             168.941        -2.32665e+06         7.08647e+07
    9.97               98137             168.293        -2.31537e+06         7.05698e+07
    9.99             97602.6             167.647        -2.30414e+06         7.02762e+07
   10.01             97070.6             167.003        -2.29296e+06         6.99841e+07
   10.03             96540.9             166.362        -2.28184e+06         6.96933e+07
   10.05             96013.6             165.722        -2.27076e+06         6.94039e+07
   10.07             95488.8             165.085        -2.25975e+06         6.91158e+07
   10.09             94966.3             164.449        -2.24878e+06         6.88292e+07
   10.11             94446.3             163.816        -2.23787e+06          6.8544e+07
   10.13             93928.6             163.185        -2.22701e+06         6.82602e+07
   10.15             93413.4             162.555         -2.2162e+06         6.79778e+07
   10.17             92900.7             161.928        -2.20545e+06         6.76968e+07
   10.19             92390.4             161.303        -2.19475e+06         6.74172e+07
   10.21             91882.5              160.68         -2.1841e+06         6.71391e+07
   10.23             91377.1             160.059        -2.17351e+06         6.68624e+07
   10.25             90874.1              159.44        -2.16298e+06         6.65872e+07
   10.27             90373.6             158.823         -2.1525e+06         6.63133e+07
   10.29             89875.6             158.208        -2.14207e+06          6.6041e+07
   10.31             89380.1             157.595         -2.1317e+06         6.57701e+07
   10.33             88887.1             156.984        -2.12138e+06         6.55006e+07
   10.35             88396.5             156.375        -2.11112e+06         6.52326e+07
   10.37             87908.5             155.768        -2.10092e+06         6.49661e+07
   10.39             87422.9             155.163        -2.09077e+06          6.4701e+07
   10.41             86939.9              154.56        -2.08068e+06         6.44374e+07
   10.43             86459.4             153.959        -2.07064e+06         6.41753e+07
   10.45             85981.4             153.359        -2.06066e+06         6.39146e+07
   10.47             85505.9             152.762        -2.05074e+06         6.36555e+07
   10.49             85032.9             152.167        -2.04087e+06         6.33978e+07
   10.51             84562.5             151.573        -2.03106e+06         6.31416e+07
   10.53             84094.6             150.982         -2.0213e+06         6.28869e+07
   10.55             83629.3             150.392         -2.0116e+06         6.26337e+07
   10.57             83166.5             149.805        -2.00196e+06          6.2382e+07
   10.59             82706.2             149.219        -1.99238e+06         6.21318e+07
   10.61             82248.6             148.635        -1.98285e+06         6.18832e+07
   10.63             81793.4             148.053        -1.97338e+06          6.1636e+07
   10.65             81340.8             147.472        -1.96397e+06         6.13903e+07
   10.67             80890.8             146.894        -1.95461e+06         6.11461e+07
   10.69             80443.4             146.318        -1.94532e+06         6.09035e+07
   10.71             79998.5             145.743        -1.93608e+06         6.06624e+07
   10.73             79556.2              145.17        -1.92689e+06         6.04228e+07
   10.75             79116.5             144.599        -1.91777e+06         6.01847e+07
   10.77             78679.3              144.03         -1.9087e+06         5.99481e+07
   10.79             78244.7             143.462         -1.8997e+06         5.97131e+07
   10.81             77812.7             142.897        -1.89075e+06         5.94796e+07
   10.83             77383.3             142.333        -1.88185e+06         5.92476e+07
   10.85             76956.5             141.771        -1.87302e+06         5.90171e+07
   10.87             76532.3              141.21        -1.86424e+06         5.87882e+07
   10.89             76110.6             140.652        -1.85553e+06         5.85608e+07
   10.91             75691.6             140.095        -1.84687e+06         5.83349e+07
   10.93             75275.1              139.54        -1.83827e+06         5.81106e+07
   10.95             74861.2             138.987        -1.82972e+06         5.78878e+07
   10.97               74450             138.435        -1.82124e+06         5.76665e+07
   10.99             74041.3             137.885        -1.81281e+06         5.74468e+07
   11.01             73635.2             137.337        -1.80444e+06         5.72286e+07
   11.03             73231.7             136.791        -1.79614e+06         5.70119e+07
   11.05             72830.8             136.246        -1.78789e+06         5.67968e+07
   11.07             72432.5             135.703        -1.77969e+06         5.65832e+07
   11.09             72036.8             135.162        -1.77156e+06         5.63711e+07
   11.11             71643.7             134.622        -1.76348e+06         5.61606e+07
   11.13             71253.2             134.084        -1.75547e+06         5.59517e+07
   11.15             70865.3             133.548        -1.74751e+06         5.57442e+07
   11.17               70480             133.013        -1.73961e+06         5.55383e+07
   11.19             70097.3              132.48        -1.73177e+06         5.53339e+07
   11.21             69717.2             131.948        -1.72399e+06         5.51311e+07
   11.23             69339.7             131.418        -1.71626e+06         5.49298e+07
   11.25             68964.8              130.89         -1.7086e+06           5.473e+07
   11.27             68592.4             130.364        -1.70099e+06         5.45317e+07
   11.29             68222.7             129.839        -1.69344e+06          5.4335e+07
   11.31             67855.5             129.315        -1.68595e+06         5.41398e+07
   11.33             67490.9             128.793        -1.67852e+06         5.39462e+07
   11.35               67129             128.273        -1.67115e+06          5.3754e+07
   11.37             66769.6             127.754        -1.66383e+06         5.35634e+07
   11.39             66412.7             127.237        -1.65657e+06         5.33744e+07
   11.41             66058.5             126.722        -1.64937e+06         5.31868e+07
   11.43             65706.8             126.208        -1.64223e+06         5.30007e+07
   11.45             65357.7             125.695        -1.63515e+06         5.28162e+07
   11.47             65011.2             125.184        -1.62812e+06         5.26332e+07
   11.49             64667.3             124.675        -1.62115e+06         5.24517e+07
   11.51             64325.9             124.167        -1.61424e+06         5.22717e+07
   11.53             63987.1              123.66        -1.60739e+06         5.20932e+07
   11.55             63650.8             123.156         -1.6006e+06         5.19162e+07
   11.57             63317.1             122.652        -1.59386e+06         5.17408e+07
   11.59             62985.9              122.15        -1.58718e+06         5.15668e+07
   11.61             62657.3              121.65        -1.58056e+06         5.13943e+07
   11.63             62331.3             121.151        -1.57399e+06         5.12233e+07
   11.65             62007.8             120.654        -1.56748e+06         5.10538e+07
   11.67             61686.8             120.158        -1.56103e+06         5.08858e+07
   11.69             61368.4             119.663        -1.55464e+06         5.07193e+07
   11.71             61052.4              119.17         -1.5483e+06         5.05543e+07
   11.73             60739.1             118.679        -1.54202e+06         5.03907e+07
   11.75             60428.2             118.188        -1.53579e+06         5.02287e+07
   11.77             60119.8               117.7        -1.52962e+06         5.00681e+07
   11.79               59814             117.213        -1.52351e+06         4.99089e+07
   11.81             59510.7             116.727        -1.51746e+06         4.97512e+07
   11.83             59209.8             116.242        -1.51146e+06          4.9595e+07
   11.85             58911.5             115.759        -1.50551e+06         4.94403e+07
   11.87             58615.6             115.278        -1.49962e+06          4.9287e+07
   11.89             58322.3             114.798        -1.49379e+06         4.91351e+07
   11.91             58031.4             114.319        -1.48801e+06         4.89847e+07
   11.93               57743             113.842        -1.48229e+06         4.88357e+07
   11.95             57457.1             113.366        -1.47663e+06         4.86882e+07
   11.97             57173.6             112.892        -1.47101e+06         4.85421e+07
   11.99             56892.6             112.419        -1.46546e+06         4.83974e+07
   12.01               56614             111.947        -1.45995e+06         4.82541e+07
   12.03             56337.9             111.477        -1.45451e+06         4.81123e+07
   12.05             56064.2             111.008        -1.44911e+06         4.79719e+07
   12.07             55792.9             110.541        -1.44377e+06         4.78328e+07
   12.09             55524.1             110.075        -1.43849e+06         4.76952e+07
   12.11             55257.7              109.61        -1.43326e+06          4.7559e+07
   12.13             54993.7             109.147        -1.42808e+06         4.74241e+07
   12.15             54732.1             108.685        -1.42295e+06         4.72907e+07
   12.17             54472.9             108.225        -1.41788e+06         4.71586e+07
   12.19             54216.1             107.766        -1.41286e+06         4.70279e+07
   12.21             53961.6             107.308         -1.4079e+06         4.68986e+07
   12.23             53709.6             106.852        -1.40298e+06         4.67707e+07
   12.25             53459.9             106.397        -1.39812e+06         4.66441e+07
   12.27             53212.6             105.943        -1.39332e+06         4.65188e+07
   12.29             52967.6             105.491        -1.38856e+06         4.63949e+07
   12.31               52725             105.041        -1.38386e+06         4.62724e+07
   12.33             52484.7             104.591         -1.3792e+06         4.61512e+07
   12.35             52246.7             104.143         -1.3746e+06         4.60313e+07
   12.37             52011.1             103.697        -1.37005e+06         4.59127e+07
   12.39             51777.7             103.252        -1.36555e+06         4.57955e+07
   12.41             51546.7             102.808         -1.3611e+06         4.56795e+07
   12.43               51318             102.366         -1.3567e+06         4.55649e+07
   12.45             51091.5             101.925        -1.35236e+06         4.54516e+07
   12.47             50867.4             101.486        -1.34806e+06         4.53395e+07
   12.49             50645.5             101.048        -1.34381e+06         4.52288e+07
   12.51             50425.9             100.611        -1.33961e+06         4.51193e+07
   12.53             50208.5             100.176        -1.33546e+06         4.50111e+07
   12.55             49993.4             99.7425        -1.33136e+06         4.49041e+07
   12.57             49780.5             99.3102        -1.32731e+06         4.47985e+07
   12.59             49569.8             98.8794        -1.32331e+06          4.4694e+07
   12.61             49361.3             98.4501        -1.31936e+06         4.45909e+07
   12.63             49155.1             98.0222        -1.31545e+06         4.44889e+07
   12.65               48951             97.5958        -1.31159e+06         4.43882e+07
   12.67             48749.2             97.1708        -1.30778e+06         4.42887e+07
   12.69             48549.5             96.7473        -1.30402e+06         4.41905e+07
   12.71               48352             96.3253         -1.3003e+06         4.40934e+07
   12.73             48156.7             95.9048        -1.29663e+06         4.39976e+07
   12.75             47963.5             95.4858        -1.29301e+06         4.39029e+07
   12.77             47772.4             95.0683        -1.28943e+06         4.38095e+07
   12.79             47583.5             94.6523         -1.2859e+06         4.37172e+07
   12.81             47396.7             94.2378        -1.28242e+06         4.36261e+07
   12.83               47212             93.8249        -1.27898e+06         4.35361e+07
   12.85             47029.4             93.4135        -1.27559e+06         4.34474e+07
   12.87             46848.9             93.0036        -1.27224e+06         4.33597e+07
   12.89             46670.5             92.5953        -1.26894e+06         4.32733e+07
   12.91             46494.1             92.1886        -1.26568e+06         4.31879e+07
   12.93             46319.8             91.7834        -1.26246e+06         4.31037e+07
   12.95             46147.6             91.3798        -1.25929e+06         4.30206e+07
   12.97             45977.4             90.9779        -1.25616e+06         4.29386e+07
   12.99             45809.2             90.5775        -1.25308e+06         4.28578e+07
   13.01             45643.1             90.1788        -1.25004e+06          4.2778e+07
   13.03               45479             89.7817        -1.24704e+06         4.26993e+07
   13.05             45316.8             89.3862        -1.24409e+06         4.26217e+07
   13.07             45156.7             88.9924        -1.24117e+06         4.25452e+07
   13.09             44998.5             88.6002         -1.2383e+06         4.24698e+07
   13.11             44842.3             88.2097        -1.23547e+06         4.23954e+07
   13.13               44688              87.821        -1.23268e+06          4.2322e+07
   13.15             44535.7             87.4339        -1.22993e+06         4.22497e+07
   13.17             44385.3             87.0485        -1.22723e+06         4.21785e+07
   13.19             44236.8             86.6649        -1.22456e+06         4.21083e+07
   13.21             44090.3              86.283        -1.22194e+06         4.20391e+07
   13.23             43945.6             85.9028        -1.21935e+06         4.19709e+07
   13.25             43802.9             85.5244         -1.2168e+06         4.19037e+07
   13.27               43662             85.1478         -1.2143e+06         4.18375e+07
   13.29               43523              84.773        -1.21183e+06         4.17723e+07
   13.31             43385.8                84.4         -1.2094e+06          4.1708e+07
   13.33             43250.5             84.0288        -1.20701e+06         4.16448e+07
   13.35               43117             83.6595        -1.20466e+06         4.15825e+07
   13.37             42985.3              83.292        -1.20234e+06         4.15212e+07
   13.39             42855.5             82.9263        -1.20007e+06         4.14608e+07
   13.41             42727.4             82.5626        -1.19783e+06         4.14014e+07
   13.43             42601.1             82.2007        -1.19562e+06         4.13428e+07
   13.45             42476.6             81.8408        -1.19346e+06         4.12852e+07
   13.47             42353.9             81.4827        -1.19133e+06         4.12286e+07
   13.49             42232.9             81.1266        -1.18923e+06         4.11728e+07
   13.51             42113.7             80.7725        -1.18717e+06         4.11179e+07
   13.53             41996.2             80.4203        -1.18515e+06          4.1064e+07
   13.55             41880.4             80.0701        -1.18316e+06         4.10109e+07
   13.57             41766.3             79.7219        -1.18121e+06         4.09586e+07
   13.59             41653.9             79.3757        -1.17929e+06         4.09073e+07
   13.61             41543.2             79.0315        -1.17741e+06         4.08568e+07
   13.63             41434.2             78.6894        -1.17556e+06         4.08071e+07
   13.65             41326.8             78.3493        -1.17374e+06         4.07583e+07
   13.67             41221.1             78.0114        -1.17196e+06         4.07104e+07
   13.69               41117             77.6754        -1.17021e+06         4.06632e+07
   13.71             41014.5             77.3416        -1.16849e+06         4.06169e+07
   13.73             40913.6             77.0099        -1.16681e+06         4.05713e+07
   13.75             40814.4             76.6804        -1.16516e+06         4.05266e+07
   13.77             40716.7              76.353        -1.16354e+06         4.04827e+07
   13.79             40620.7             76.0277        -1.16195e+06         4.04395e+07
   13.81             40526.1             75.7046        -1.16039e+06         4.03972e+07
   13.83             40433.2             75.3837        -1.15886e+06         4.03556e+07
   13.85             40341.8              75.065        -1.15736e+06         4.03147e+07
   13.87             40251.9             74.7486         -1.1559e+06         4.02746e+07
   13.89             40163.5             74.4344        -1.15446e+06         4.02353e+07
   13.91             40076.7             74.1224        -1.15306e+06         4.01966e+07
   13.93             39991.3             73.8127        -1.15168e+06         4.01587e+07
   13.95             39907.4             73.5052        -1.15033e+06         4.01216e+07
   13.97               39825             73.2001        -1.14901e+06         4.00851e+07
   13.99             39744.1             72.8972        -1.14772e+06         4.00493e+07
   14.01             39664.6             72.5967        -1.14646e+06         4.00143e+07
   14.03             39586.6             72.2985        -1.14522e+06         3.99799e+07
   14.05             39509.9             72.0026        -1.14402e+06         3.99462e+07
   14.07             39434.7             71.7092        -1.14284e+06         3.99132e+07
   14.09             39360.9              71.418        -1.14168e+06         3.98808e+07
   14.11             39288.5             71.1293        -1.14056e+06         3.98491e+07
   14.13             39217.5              70.843        -1.13946e+06          3.9818e+07
   14.15             39147.8              70.559        -1.13839e+06         3.97876e+07
   14.17             39079.5             70.2775        -1.13734e+06         3.97578e+07
   14.19             39012.5             69.9984        -1.13632e+06         3.97286e+07
   14.21             38946.9             69.7218        -1.13532e+06         3.97001e+07
   14.23             38882.6             69.4476        -1.13435e+06         3.96721e+07
   14.25             38819.6             69.1759         -1.1334e+06         3.96448e+07
   14.27             38757.9             68.9067        -1.13248e+06          3.9618e+07
   14.29             38697.5               68.64        -1.13158e+06         3.95918e+07
   14.31             38638.3             68.3757        -1.13071e+06         3.95662e+07
   14.33             38580.5              68.114        -1.12986e+06         3.95412e+07
   14.35             38523.8             67.8548        -1.12903e+06         3.95167e+07
   14.37             38468.5             67.5981        -1.12822e+06         3.94928e+07
   14.39             38414.3              67.344        -1.12744e+06         3.94694e+07
   14.41             38361.4             67.0924        -1.12668e+06         3.94466e+07
   14.43             38309.7             66.8433        -1.12594e+06         3.94243e+07
   14.45             38259.2             66.5969        -1.12523e+06         3.94025e+07
   14.47             38209.8              66.353        -1.12453e+06         3.93813e+07
   14.49             38161.7             66.1117        -1.12386e+06         3.93605e+07
   14.51             38114.7              65.873        -1.12321e+06         3.93403e+07
   14.53             38068.8             65.6368        -1.12258e+06         3.93205e+07
   14.55             38024.1             65.4033        -1.12197e+06         3.93013e+07
   14.57             37980.6             65.1724        -1.12137e+06         3.92825e+07
   14.59             37938.1             64.9441         -1.1208e+06         3.92642e+07
   14.61             37896.8             64.7184        -1.12025e+06         3.92463e+07
   14.63             37856.5             64.4954        -1.11972e+06         3.92289e+07
   14.65             37817.4              64.275        -1.11921e+06          3.9212e+07
   14.67             37779.3             64.0572        -1.11871e+06         3.91955e+07
   14.69             37742.3             63.8421        -1.11824e+06         3.91795e+07
   14.71             37706.3             63.6296        -1.11778e+06         3.91638e+07
   14.73             37671.4             63.4198        -1.11734e+06         3.91487e+07
   14.75             37637.5             63.2126        -1.11692e+06         3.91339e+07
   14.77             37604.6             63.0081        -1.11652e+06         3.91195e+07
   14.79             37572.8             62.8062        -1.11613e+06         3.91055e+07
   14.81             37541.9              62.607        -1.11576e+06          3.9092e+07
   14.83             37512.1             62.4105        -1.11541e+06         3.90788e+07
   14.85             37483.2             62.2167        -1.11508e+06          3.9066e+07
   14.87             37455.3             62.0255        -1.11476e+06         3.90536e+07
   14.89             37428.3              61.837        -1.11445e+06         3.90415e+07
   14.91             37402.3             61.6511        -1.11416e+06         3.90298e+07
   14.93             37377.2              61.468        -1.11389e+06         3.90185e+07
   14.95             37353.1             61.2875        -1.11364e+06         3.90076e+07
   14.97             37329.9             61.1097        -1.11339e+06         3.89969e+07
   14.99             37307.6             60.9345        -1.11317e+06         3.89866e+07
   15.01             37286.2              60.762        -1.11295e+06         3.89767e+07
   15.03             37265.6             60.5922        -1.11276e+06         3.89671e+07
   15.05               37246             60.4251        -1.11257e+06         3.89577e+07
   15.07             37227.2             60.2606         -1.1124e+06         3.89487e+07
   15.09             37209.3             60.0988        -1.11224e+06         3.89401e+07
   15.11             37192.2             59.9396         -1.1121e+06         3.89317e+07
   15.13               37176             59.7831        -1.11197e+06         3.89236e+07
   15.15             37160.5             59.6293        -1.11185e+06         3.89158e+07
   15.17               37146             59.4781        -1.11175e+06         3.89083e+07
   15.19             37132.2             59.3296        -1.11166e+06         3.89011e+07
   15.21             37119.2             59.1837        -1.11158e+06         3.88941e+07
   15.23               37107             59.0404        -1.11151e+06         3.88874e+07
   15.25             37095.6             58.8998        -1.11145e+06          3.8881e+07
   15.27             37084.9             58.7618        -1.11141e+06         3.88748e+07
   15.29             37075.1             58.6265        -1.11138e+06         3.88689e+07
   15.31             37065.9             58.4937        -1.11136e+06         3.88632e+07
   15.33             37057.6             58.3636        -1.11134e+06         3.88578e+07
   15.35             37049.9              58.236        -1.11134e+06         3.88526e+07
   15.37               37043             58.1111        -1.11136e+06         3.88476e+07
   15.39             37036.8             57.9888        -1.11138e+06         3.88429e+07
   15.41             37031.3              57.869        -1.11141e+06         3.88384e+07
   15.43             37026.5             57.7518        -1.11145e+06         3.88341e+07
   15.45             37022.4             57.6372         -1.1115e+06           3.883e+07
   15.47               37019             57.5251        -1.11156e+06         3.88261e+07
   15.49             37016.2             57.4156        -1.11163e+06         3.88224e+07
   15.51             37014.1             57.3086        -1.11171e+06         3.88189e+07
   15.53             37012.7             57.2042         -1.1118e+06         3.88156e+07
   15.55             37011.9             57.1023        -1.11189e+06         3.88124e+07
   15.57             37011.7             57.0029          -1.112e+06         3.88095e+07
   15.59             37012.2              56.906        -1.11211e+06         3.88067e+07
   15.61             37013.3             56.8116        -1.11223e+06         3.88041e+07
   15.63               37015             56.7196        -1.11236e+06         3.88017e+07
   15.65             37017.3             56.6302         -1.1125e+06         3.87994e+07
   15.67             37020.2             56.5432        -1.11265e+06         3.87973e+07
   15.69             37023.7             56.4587         -1.1128e+06         3.87953e+07
   15.71             37027.8             56.3765        -1.11296e+06         3.87935e+07
   15.73             37032.4             56.2969        -1.11313e+06         3.87919e+07
   15.75             37037.7             56.2196         -1.1133e+06         3.87903e+07
   15.77             37043.4             56.1447        -1.11349e+06          3.8789e+07
   15.79             37049.7             56.0723        -1.11367e+06         3.87877e+07
   15.81             37056.6             56.0022        -1.11387e+06         3.87866e+07
   15.83               37064             55.9345        -1.11407e+06         3.87856e+07
   15.85             37071.9             55.8691        -1.11428e+06         3.87847e+07
   15.87             37080.3              55.806        -1.11449e+06         3.87839e+07
   15.89             37089.3             55.7453        -1.11471e+06         3.87833e+07
   15.91             37098.7             55.6869        -1.11493e+06         3.87827e+07
   15.93             37108.6             55.6308        -1.11516e+06         3.87823e+07
   15.95             37119.1              55.577         -1.1154e+06         3.87819e+07
   15.97               37130             55.5254        -1.11564e+06         3.87817e+07
   15.99             37141.3             55.4761        -1.11589e+06         3.87815e+07
   16.01             37153.2             55.4291        -1.11614e+06         3.87815e+07
   16.03             37165.5             55.3843        -1.11639e+06         3.87815e+07
   16.05             37178.2             55.3416        -1.11666e+06         3.87816e+07
   16.07             37191.4             55.3012        -1.11692e+06         3.87818e+07
   16.09             37205.1              55.263        -1.11719e+06         3.87821e+07
   16.11             37219.1             55.2269        -1.11746e+06         3.87824e+07
   16.13             37233.6              55.193        -1.11774e+06         3.87828e+07
   16.15             37248.5             55.1612        -1.11802e+06         3.87833e+07
   16.17             37263.8             55.1315        -1.11831e+06         3.87838e+07
   16.19             37279.5             55.1039         -1.1186e+06         3.87844e+07
   16.21             37295.7             55.0785        -1.11889e+06         3.87851e+07
   16.23             37312.2              55.055        -1.11919e+06         3.87858e+07
   16.25             37329.1             55.0337        -1.11949e+06         3.87866e+07
   16.27             37346.3             55.0144        -1.11979e+06         3.87874e+07
   16.29               37364             54.9971         -1.1201e+06         3.87882e+07
   16.31               37382             54.9818        -1.12041e+06         3.87892e+07
   16.33             37400.3             54.9685        -1.12072e+06         3.87901e+07
   16.35             37419.1             54.9572        -1.12103e+06         3.87911e+07
   16.37             37438.1             54.9478        -1.12135e+06         3.87921e+07
   16.39             37457.5             54.9404        -1.12167e+06         3.87932e+07
   16.41             37477.3             54.9349        -1.12199e+06         3.87942e+07
   16.43             37497.4             54.9313        -1.12232e+06         3.87953e+07
   16.45             37517.7             54.9296        -1.12264e+06         3.87965e+07
   16.47             37538.5             54.9298        -1.12297e+06         3.87976e+07
   16.49             37559.5             54.9318         -1.1233e+06         3.87988e+07
   16.51             37580.8             54.9356        -1.12364e+06            3.88e+07
   16.53             37602.4             54.9413        -1.12397e+06         3.88012e+07
   16.55             37624.4             54.9488        -1.12431e+06         3.88024e+07
   16.57             37646.6              54.958        -1.12464e+06         3.88037e+07
   16.59             37669.1             54.9691        -1.12498e+06         3.88049e+07
   16.61             37691.8             54.9819        -1.12532e+06         3.88062e+07
   16.63             37714.9             54.9964        -1.12567e+06         3.88074e+07
   16.65             37738.2             55.0126        -1.12601e+06         3.88087e+07
   16.67             37761.8             55.0305        -1.12635e+06           3.881e+07
   16.69             37785.6             55.0502         -1.1267e+06         3.88112e+07
   16.71             37809.7             55.0714        -1.12705e+06         3.88125e+07
   16.73               37834             55.0944        -1.12739e+06         3.88138e+07
   16.75             37858.6             55.1189        -1.12774e+06          3.8815e+07
   16.77             37883.4             55.1451        -1.12809e+06         3.88162e+07
   16.79             37908.4             55.1728        -1.12844e+06         3.88175e+07
   16.81             37933.7             55.2021        -1.12879e+06         3.88187e+07
   16.83             37959.2              55.233        -1.12914e+06         3.88199e+07
   16.85             37984.9             55.2654        -1.12949e+06         3.88211e+07
   16.87             38010.8             55.2994        -1.12984e+06         3.88223e+07
   16.89             38036.9             55.3349        -1.13019e+06         3.88234e+07
   16.91             38063.3             55.3718        -1.13054e+06         3.88246e+07
   16.93             38089.8             55.4102        -1.13089e+06         3.88257e+07
   16.95             38116.5             55.4501        -1.13125e+06         3.88268e+07
   16.97             38143.4             55.4914         -1.1316e+06         3.88279e+07
   16.99             38170.5             55.5341        -1.13195e+06         3.88289e+07
   17.01             38197.8             55.5782         -1.1323e+06         3.88299e+07
   17.03             38225.2             55.6237        -1.13265e+06         3.88309e+07
   17.05             38252.9             55.6706          -1.133e+06         3.88319e+07
   17.07             38280.6             55.7188        -1.13335e+06         3.88328e+07
   17.09             38308.6             55.7683         -1.1337e+06         3.88337e+07
   17.11             38336.7             55.8192        -1.13405e+06         3.88346e+07
   17.13               38365             55.8713         -1.1344e+06         3.88354e+07
   17.15             38393.4             55.9248        -1.13475e+06         3.88362e+07
   17.17             38421.9             55.9794        -1.13509e+06          3.8837e+07
   17.19             38450.6             56.0354        -1.13544e+06         3.88377e+07
   17.21             38479.5             56.0926        -1.13579e+06         3.88384e+07
   17.23             38508.4             56.1509        -1.13613e+06          3.8839e+07
   17.25             38537.5             56.2105        -1.13647e+06         3.88396e+07
   17.27             38566.8             56.2713        -1.13682e+06         3.88402e+07
   17.29             38596.1             56.3332        -1.13716e+06         3.88407e+07
   17.31             38625.6             56.3962         -1.1375e+06         3.88412e+07
   17.33             38655.1             56.4604        -1.13784e+06         3.88417e+07
   17.35             38684.8             56.5257        -1.13818e+06          3.8842e+07
   17.37             38714.6             56.5921        -1.13851e+06         3.88424e+07
   17.39             38744.5             56.6596        -1.13885e+06         3.88427e+07
   17.41             38774.5             56.7281        -1.13919e+06         3.88429e+07
   17.43             38804.6             56.7977        -1.13952e+06         3.88432e+07
   17.45             38834.8             56.8683        -1.13985e+06         3.88433e+07
   17.47             38865.1             56.9399        -1.14018e+06         3.88434e+07
   17.49             38895.5             57.0125        -1.14051e+06         3.88435e+07
   17.51             38925.9             57.0861        -1.14084e+06         3.88435e+07
   17.53             38956.4             57.1607        -1.14116e+06         3.88434e+07
   17.55               38987             57.2362        -1.14149e+06         3.88433e+07
   17.57             39017.7             57.3127        -1.14181e+06         3.88432e+07
   17.59             39048.5               57.39        -1.14213e+06          3.8843e+07
   17.61             39079.3             57.4683        -1.14245e+06         3.88427e+07
   17.63             39110.1             57.5475        -1.14277e+06         3.88424e+07
   17.65               39141             57.6275        -1.14308e+06          3.8842e+07
   17.67               39172             57.7084         -1.1434e+06         3.88416e+07
   17.69               39203             57.7901        -1.14371e+06         3.88411e+07
   17.71             39234.1             57.8727        -1.14402e+06         3.88406e+07
   17.73             39265.3             57.9561        -1.14433e+06           3.884e+07
   17.75             39296.4             58.0402        -1.14463e+06         3.88393e+07
   17.77             39327.6             58.1252        -1.14494e+06         3.88386e+07
   17.79             39358.9             58.2109        -1.14524e+06         3.88379e+07
   17.81             39390.1             58.2974        -1.14554e+06          3.8837e+07
   17.83             39421.4             58.3846        -1.14584e+06         3.88361e+07
   17.85             39452.8             58.4726        -1.14613e+06         3.88352e+07
   17.87             39484.1             58.5612        -1.14642e+06         3.88342e+07
   17.89             39515.5             58.6506        -1.14672e+06         3.88331e+07
   17.91             39546.9             58.7407          -1.147e+06          3.8832e+07
   17.93             39578.3             58.8314        -1.14729e+06         3.88308e+07
   17.95             39609.7             58.9227        -1.14757e+06         3.88295e+07
   17.97             39641.1             59.0148        -1.14786e+06         3.88282e+07
   17.99             39672.6             59.1074        -1.14814e+06         3.88268e+07
   18.01               39704             59.2007        -1.14841e+06         3.88254e+07
   18.03             39735.4             59.2945        -1.14869e+06         3.88239e+07
   18.05             39766.9              59.389        -1.14896e+06         3.88223e+07
   18.07             39798.3              59.484        -1.14923e+06         3.88207e+07
   18.09             39829.7             59.5796         -1.1495e+06          3.8819e+07
   18.11             39861.1             59.6758        -1.14976e+06         3.88172e+07
   18.13             39892.5             59.7724        -1.15002e+06         3.88154e+07
   18.15             39923.9             59.8697        -1.15028e+06         3.88135e+07
   18.17             39955.2             59.9674        -1.15054e+06         3.88115e+07
   18.19             39986.6             60.0656        -1.15079e+06         3.88095e+07
   18.21             40017.9             60.1643        -1.15105e+06         3.88074e+07
   18.23             40049.2             60.2635        -1.15129e+06         3.88052e+07
   18.25             40080.4             60.3632        -1.15154e+06          3.8803e+07
   18.27             40111.6             60.4633        -1.15178e+06         3.88007e+07
   18.29             40142.8             60.5639        -1.15202e+06         3.87983e+07
   18.31             40173.9             60.6649        -1.15226e+06         3.87959e+07
   18.33               40205             60.7663         -1.1525e+06         3.87934e+07
   18.35             40236.1             60.8681        -1.15273e+06         3.87908e+07
   18.37             40267.1             60.9703        -1.15296e+06         3.87882e+07
   18.39             40298.1             61.0729        -1.15318e+06         3.87855e+07
   18.41               40329             61.1759        -1.15341e+06         3.87827e+07
   18.43             40359.8             61.2792        -1.15363e+06         3.87798e+07
   18.45             40390.6             61.3829        -1.15384e+06         3.87769e+07
   18.47             40421.4             61.4869        -1.15406e+06         3.87739e+07
   18.49               40452             61.5913        -1.15427e+06         3.87709e+07
   18.51             40482.7              61.696        -1.15448e+06         3.87677e+07
   18.53             40513.2              61.801        -1.15468e+06         3.87645e+07
   18.55             40543.7             61.9063        -1.15488e+06         3.87613e+07
   18.57             40574.1             62.0118        -1.15508e+06         3.87579e+07
   18.59             40604.4             62.1177        -1.15528e+06         3.87545e+07
   18.61             40634.6             62.2238        -1.15547e+06          3.8751e+07
   18.63             40664.8             62.3302        -1.15566e+06         3.87474e+07
   18.65             40694.9             62.4369        -1.15584e+06         3.87438e+07
   18.67             40724.9             62.5438        -1.15602e+06         3.87401e+07
   18.69             40754.8             62.6509         -1.1562e+06         3.87363e+07
   18.71             40784.6             62.7583        -1.15638e+06         3.87324e+07
   18.73             40814.3             62.8658        -1.15655e+06         3.87285e+07
   18.75               40844             62.9736        -1.15672e+06         3.87245e+07
   18.77             40873.5             63.0816        -1.15689e+06         3.87204e+07
   18.79             40902.9             63.1897        -1.15705e+06         3.87163e+07
   18.81             40932.2             63.2981        -1.15721e+06          3.8712e+07
   18.83             40961.5             63.4066        -1.15736e+06         3.87077e+07
   18.85             40990.6             63.5153        -1.15751e+06         3.87033e+07
   18.87             41019.6             63.6241        -1.15766e+06         3.86988e+07
   18.89             41048.4             63.7331         -1.1578e+06         3.86943e+07
   18.91             41077.2             63.8422        -1.15794e+06         3.86897e+07
   18.93             41105.9             63.9514        -1.15808e+06          3.8685e+07
   18.95             41134.4             64.0608        -1.15821e+06         3.86802e+07
   18.97             41162.8             64.1703        -1.15834e+06         3.86753e+07
   18.99             41191.1             64.2798        -1.15847e+06         3.86704e+07
   19.01             41219.2             64.3895        -1.15859e+06         3.86653e+07
   19.03             41247.2             64.4993        -1.15871e+06         3.86602e+07
   19.05             41275.1             64.6092        -1.15882e+06          3.8655e+07
   19.07             41302.8             64.7191        -1.15893e+06         3.86498e+07
   19.09             41330.4             64.8291        -1.15904e+06         3.86444e+07
   19.11             41357.9             64.9392        -1.15914e+06          3.8639e+07
   19.13             41385.2             65.0493        -1.15924e+06         3.86335e+07
   19.15             41412.4             65.1595        -1.15933e+06         3.86279e+07
   19.17             41439.4             65.2697        -1.15942e+06         3.86222e+07
   19.19             41466.2               65.38         -1.1595e+06         3.86164e+07
   19.21               41493             65.4903        -1.15959e+06         3.86105e+07
   19.23             41519.5             65.6006        -1.15966e+06         3.86046e+07
   19.25             41545.9             65.7109        -1.15974e+06         3.85985e+07
   19.27             41572.1             65.8213        -1.15981e+06         3.85924e+07
   19.29             41598.2             65.9316        -1.15987e+06         3.85862e+07
   19.31             41624.1              66.042        -1.15993e+06         3.85799e+07
   19.33             41649.8             66.1523        -1.15999e+06         3.85735e+07
   19.35             41675.3             66.2626        -1.16004e+06          3.8567e+07
   19.37             41700.7             66.3729        -1.16008e+06         3.85604e+07
   19.39             41725.9             66.4832        -1.16013e+06         3.85537e+07
   19.41             41750.9             66.5935        -1.16016e+06          3.8547e+07
   19.43             41775.7             66.7037         -1.1602e+06         3.85401e+07
   19.45             41800.3             66.8139        -1.16023e+06         3.85332e+07
   19.47             41824.8              66.924        -1.16025e+06         3.85261e+07
   19.49               41849             67.0341        -1.16027e+06          3.8519e+07
   19.51             41873.1             67.1442        -1.16028e+06         3.85117e+07
   19.53             41896.9             67.2541        -1.16029e+06         3.85044e+07
   19.55             41920.6              67.364         -1.1603e+06         3.84969e+07
   19.57               41944             67.4739         -1.1603e+06         3.84894e+07
   19.59             41967.3             67.5836        -1.16029e+06         3.84817e+07
   19.61             41990.3             67.6933        -1.16028e+06          3.8474e+07
   19.63             42013.1             67.8029        -1.16027e+06         3.84662e+07
   19.65             42035.7             67.9124        -1.16025e+06         3.84582e+07
   19.67             42058.1             68.0218        -1.16023e+06         3.84502e+07
   19.69             42080.3             68.1311         -1.1602e+06          3.8442e+07
   19.71             42102.2             68.2404        -1.16016e+06         3.84337e+07
   19.73             42123.9             68.3495        -1.16012e+06         3.84254e+07
   19.75             42145.4             68.4585        -1.16007e+06         3.84169e+07
   19.77             42166.7             68.5674        -1.16002e+06         3.84083e+07
   19.79             42187.7             68.6761        -1.15997e+06         3.83996e+07
   19.81             42208.5             68.7848        -1.15991e+06         3.83908e+07
   19.83               42229             68.8933        -1.15984e+06         3.83819e+07
   19.85             42249.3             69.0017        -1.15977e+06         3.83729e+07
   19.87             42269.4             69.1099        -1.15969e+06         3.83637e+07
   19.89             42289.2              69.218         -1.1596e+06         3.83545e+07
   19.91             42308.7              69.326        -1.15951e+06         3.83451e+07
   19.93             42328.1             69.4339        -1.15942e+06         3.83356e+07
   19.95             42347.1             69.5415        -1.15932e+06          3.8326e+07
   19.97             42365.9             69.6491        -1.15921e+06         3.83162e+07
   19.99             42384.4             69.7565         -1.1591e+06         3.83064e+07
